# BASS g-band
#
# Used in the Beijing-Arizona Sky Survey (https://legacysurvey.org) at the Bok
# 2.3-meter telescope with the 90-Prime instrument. See also
# https://desi.lbl.gov/trac/wiki/ImagingStandardBandpass.
#
# wavelength (column 1) in Angstroms
# response (column 2) is the total response including KPNO atmospheric
#   extinction at an airmass of 1.1.
# 
5550.0 0.0
5560.0 0.000860821
5570.0 0.00086102100000000001
5580.0 0.0017223399999999999
5590.0 0.00172258
5600.0 0.0034455800000000002
5610.0 0.0051688999999999997
5620.0 0.00947718
5630.0 0.0163711
5640.0 0.029298299999999999
5650.0 0.053431199999999998
5660.0 0.096530400000000002
5670.0 0.16463700000000001
5680.0 0.25948500000000002
5690.0 0.36815500000000001
5700.0 0.46996700000000002
5710.0 0.553705
5720.0 0.61504000000000003
5730.0 0.65656000000000003
5740.0 0.68345699999999998
5750.0 0.69919900000000001
5760.0 0.70639700000000005
5770.0 0.70852599999999999
5780.0 0.70906100000000005
5790.0 0.70799999999999996
5800.0 0.707901
5810.0 0.70958500000000002
5820.0 0.71215099999999998
5830.0 0.71642799999999995
5840.0 0.720638
5850.0 0.72388300000000005
5860.0 0.72694400000000003
5870.0 0.72767400000000004
5880.0 0.72660400000000003
5890.0 0.72468699999999997
5900.0 0.72479899999999997
5910.0 0.72452799999999995
5920.0 0.72492100000000004
5930.0 0.72616899999999995
5940.0 0.72587199999999996
5950.0 0.72501000000000004
5960.0 0.72479800000000005
5970.0 0.72343900000000005
5980.0 0.72204199999999996
5990.0 0.719862
6000.0 0.71860100000000005
6010.0 0.71815399999999996
6020.0 0.71840099999999996
6030.0 0.71855000000000002
6040.0 0.720472
6050.0 0.72159499999999999
6060.0 0.723688
6070.0 0.72412900000000002
6080.0 0.72553400000000001
6090.0 0.72525200000000001
6100.0 0.72589599999999999
6110.0 0.72569300000000003
6120.0 0.726379
6130.0 0.72705900000000001
6140.0 0.72858900000000004
6150.0 0.72919500000000004
6160.0 0.72889000000000004
6170.0 0.72856900000000002
6180.0 0.72647399999999995
6190.0 0.72436800000000001
6200.0 0.72048199999999996
6210.0 0.71658699999999997
6220.0 0.71268399999999998
6230.0 0.70877599999999996
6240.0 0.70662599999999998
6250.0 0.70607699999999995
6260.0 0.70523000000000002
6270.0 0.70335899999999996
6280.0 0.70253900000000002
6290.0 0.70694800000000002
6300.0 0.71392100000000003
6310.0 0.71994899999999995
6320.0 0.72474099999999997
6330.0 0.72817600000000005
6340.0 0.73113799999999995
6350.0 0.73208099999999998
6360.0 0.73295100000000002
6370.0 0.733765
6380.0 0.73362099999999997
6390.0 0.73342700000000005
6400.0 0.73322600000000004
6410.0 0.73294999999999999
6420.0 0.73350899999999997
6430.0 0.73315900000000001
6440.0 0.73275299999999999
6450.0 0.73206300000000002
6460.0 0.73077899999999996
6470.0 0.729051
6480.0 0.72797800000000001
6490.0 0.72912600000000005
6500.0 0.72967700000000002
6510.0 0.73007599999999995
6520.0 0.73048000000000002
6530.0 0.73259099999999999
6540.0 0.73321000000000003
6550.0 0.73338000000000003
6560.0 0.73388699999999996
6570.0 0.73475699999999999
6580.0 0.73486700000000005
6590.0 0.73484799999999995
6600.0 0.73358000000000001
6610.0 0.73206599999999999
6620.0 0.73051200000000005
6630.0 0.72988500000000001
6640.0 0.72926899999999995
6650.0 0.72867199999999999
6660.0 0.72901800000000005
6670.0 0.73033199999999998
6680.0 0.73171699999999995
6690.0 0.73316000000000003
6700.0 0.73554699999999995
6710.0 0.73794099999999996
6720.0 0.73940600000000001
6730.0 0.74175000000000002
6740.0 0.74312100000000003
6750.0 0.74351
6760.0 0.74476299999999995
6770.0 0.745058
6780.0 0.74441199999999996
6790.0 0.74467300000000003
6800.0 0.744008
6810.0 0.74425799999999998
6820.0 0.74358199999999997
6830.0 0.74382800000000004
6840.0 0.742703
6850.0 0.73608600000000002
6860.0 0.70792200000000005
6870.0 0.67274299999999998
6880.0 0.66922300000000001
6890.0 0.68201900000000004
6900.0 0.693353
6910.0 0.70786300000000002
6920.0 0.71992599999999995
6930.0 0.72523199999999999
6940.0 0.727966
6950.0 0.73078799999999999
6960.0 0.73488699999999996
6970.0 0.738591
6980.0 0.73985599999999996
6990.0 0.73813099999999998
7000.0 0.73757200000000001
7010.0 0.73708399999999996
7020.0 0.73502699999999999
7030.0 0.73172700000000002
7040.0 0.72653800000000002
7050.0 0.71427700000000005
7060.0 0.69647300000000001
7070.0 0.66860299999999995
7080.0 0.62845499999999999
7090.0 0.57699
7100.0 0.51327900000000004
7110.0 0.44206400000000001
7120.0 0.367919
7130.0 0.29822300000000002
7140.0 0.234876
7150.0 0.18138299999999999
7160.0 0.138207
7170.0 0.10301299999999999
7180.0 0.076258900000000004
7190.0 0.058252600000000002
7200.0 0.044796000000000002
7210.0 0.034996399999999997
7220.0 0.028133499999999999
7230.0 0.0215803
7240.0 0.016904099999999998
7250.0 0.0133591
7260.0 0.0107349
7270.0 0.0089597800000000005
7280.0 0.0071870299999999996
7290.0 0.00541057
7300.0 0.0045224499999999999
7310.0 0.0036355799999999998
7320.0 0.0036651600000000002
7330.0 0.0027700400000000001
7340.0 0.00278137
7350.0 0.0018564600000000001
7360.0 0.00185699
7370.0 0.00185932
7380.0 0.00093132999999999996
7390.0 0.00093261500000000003
7400.0 0.00093405199999999999
7410.0 0.00093530600000000001
7420.0 0.00093610999999999998
7430.0 0.00093678399999999997
7440.0 0.0
