# BASS g-band
#
# Used in the Beijing-Arizona Sky Survey (https://legacysurvey.org) at the Bok
# 2.3-meter telescope with the 90-Prime instrument. See also
# https://desi.lbl.gov/trac/wiki/ImagingStandardBandpass.
#
# wavelength (column 1) in Angstroms
# response (column 2) is the total response including KPNO atmospheric
#   extinction at an airmass of 1.1.
# 
3874.3800000000001 -0.0
3889.2800000000002 0.0013291799999999999
3901.6700000000001 0.0033388200000000002
3909.0300000000002 0.0066962100000000002
3918.8000000000002 0.0114249
3923.5700000000002 0.018177100000000002
3928.21 0.027648599999999999
3928.3800000000001 0.022929499999999998
3932.8600000000001 0.031747600000000001
3933.0599999999999 0.031749800000000002
3940.1300000000001 0.043341900000000003
3944.6999999999998 0.055620299999999998
3944.8899999999999 0.049518899999999998
3949.3899999999999 0.063863000000000003
3951.5700000000002 0.072749300000000003
3953.7600000000002 0.081648799999999994
3958.3699999999999 0.092679499999999998
3966.6100000000001 0.14350199999999999
3975.25 0.18228800000000001
4008.4200000000001 0.30902099999999999
4044.8600000000001 0.41516999999999998
4046.9699999999998 0.421765
4051.8099999999999 0.43225000000000002
4059.0599999999999 0.440278
4063.8000000000002 0.44798399999999999
4066.0700000000002 0.454656
4070.8099999999999 0.46310600000000002
4080.5700000000002 0.470194
4087.8600000000001 0.47694900000000001
4102.54 0.487674
4124.6800000000003 0.49950299999999997
4141.9399999999996 0.50695900000000005
4154.1599999999999 0.51654100000000003
4163.8999999999996 0.52430699999999997
4178.5299999999997 0.53626799999999997
4195.6700000000001 0.547906
4203.0 0.55329499999999998
4240.3299999999999 0.56032099999999996
4252.8999999999996 0.558527
4287.7600000000002 0.56437400000000004
4292.6400000000003 0.56804200000000005
4310.1499999999996 0.56879400000000002
4315.0500000000002 0.57165100000000002
4330.04 0.57188499999999998
4352.5 0.57359599999999999
4362.3800000000001 0.577708
4382.2200000000003 0.58295200000000003
4397.0699999999997 0.58691400000000005
4404.3500000000004 0.59463699999999997
4419.1599999999999 0.60094099999999995
4429.0200000000004 0.60516599999999998
4433.8500000000004 0.61113300000000004
4448.8199999999997 0.61215600000000003
4458.5600000000004 0.62110699999999996
4465.9499999999998 0.62437600000000004
4493.3599999999997 0.62793299999999996
4501.0100000000002 0.623421
4513.6300000000001 0.61788600000000005
4523.7600000000002 0.61276299999999995
4538.9499999999998 0.60497100000000004
4546.7399999999998 0.59395299999999995
4557.1099999999997 0.58077199999999995
4572.1000000000004 0.57984199999999997
4584.6499999999996 0.57705700000000004
4599.5900000000001 0.57681199999999999
4611.9799999999996 0.57946200000000003
4621.8400000000001 0.58265999999999996
4636.5699999999997 0.59021999999999997
4648.79 0.59758900000000004
4656.0299999999997 0.60538499999999995
4665.79 0.61262000000000005
4680.4799999999996 0.62119999999999997
4687.7399999999998 0.62837500000000002
4692.4899999999998 0.63612999999999997
4702.2299999999996 0.64444400000000002
4714.46 0.65220599999999995
4731.6899999999996 0.65867600000000004
4739.0299999999997 0.66328799999999999
4748.7700000000004 0.66471100000000005
4748.9300000000003 0.66472100000000001
4785.9899999999998 0.674095
4795.9300000000003 0.67401999999999995
4810.9899999999998 0.67038900000000001
4836.0100000000002 0.66687600000000002
4855.8599999999997 0.66864500000000004
4860.9300000000003 0.66580099999999998
4875.8699999999999 0.66626799999999997
4885.75 0.66873899999999997
4898.25 0.667242
4925.6400000000003 0.66654999999999998
4965.3400000000001 0.67007799999999995
5015.0900000000001 0.67083800000000005
5077.2399999999998 0.67725400000000002
5114.4799999999996 0.68380700000000005
5139.46 0.68191100000000004
5147.0699999999997 0.67811500000000002
5179.5900000000001 0.67463300000000004
5207.1899999999996 0.66806900000000002
5247.1400000000003 0.664821
5269.6400000000003 0.66276000000000002
5279.4700000000003 0.667242
5311.9799999999996 0.66296900000000003
5329.54 0.65918600000000005
5334.8400000000001 0.64826300000000003
5355.1000000000004 0.63778199999999996
5365.3299999999999 0.628714
5380.5699999999997 0.61895800000000001
5403.25 0.611155
5425.5100000000002 0.61615299999999995
5437.79 0.622533
5450.0600000000004 0.628915
5460.3900000000003 0.61638000000000004
5460.6800000000003 0.61553100000000005
5463.3599999999997 0.60018000000000005
5466.0900000000001 0.59254399999999996
5466.3199999999997 0.58483300000000005
5469.4799999999996 0.56262500000000004
5470.1800000000003 0.52404899999999999
5470.8100000000004 0.51720299999999997
5476.9200000000001 0.479605
5477.8199999999997 0.47533500000000001
5478.46 0.34321299999999999
5479.3699999999999 0.395569
5484.5500000000002 0.30554500000000001
5507.1400000000003 0.13144700000000001
5512.5799999999999 0.11601
5523.21 0.093710000000000002
5531.3500000000004 0.071380600000000002
5536.7799999999997 0.0559119
5542.0 0.048179300000000001
5544.7200000000003 0.040439999999999997
5552.3999999999996 0.032704200000000003
5555.1099999999997 0.0258211
5567.7799999999997 0.018080599999999999
5585.46 0.010334899999999999
5603.0100000000002 0.0068913799999999999
5615.5299999999997 0.0043076399999999997
5625.5299999999997 0.00344641
5660.4300000000003 0.0025856500000000001
5690.3699999999999 0.00086219599999999997
5740.1899999999996 0.00086295399999999998
5804.96 0.00086695499999999998
5869.7299999999996 0.00087148900000000003
5949.46 0.0
6009.25 0.0
6151.2399999999998 0.0
6278.29 0.0
6395.3699999999999 0.0
6495.0 0.00090114399999999999
6496.0 0.0
