# Units:
#  "lambda" is in Angstroms
#  "pass" is the contribution to the detector signal per photon
#         entering the atmosphere of Earth
#
# Bandpass Name(s): NUV
#
# Instrument: GalEx
# 
# Determined by: GalEx team (sent by David Schiminovich)
#
# Date of determination: 2003?
#
# Meaning of/Reason for default column: Only available
#
# Notes:
# 
# From Schiminovich:
#
# "In ground calibration, by measuring photon count rates of a
# monochromatic source and comparing to counts measured by a
# NIST-referenced photomultiplier tube.  At a given wavelength:
#
# Effective area=(Geometric open aperture)*(measured
# counts)*(phototube efficiency)/(phototube counts) 
# 
# Can determine zero-point from this.  We have compared to WD
# standards in-flight and believe our zero-point is less than 0.1 mag
# off, and will improve accuracy over the next few months (more
# calibrators are being observed).  Grism mode allows us to make some
# band shape determinations, however grism order efficiency enters
# into calculation.
#   
# -DS"
#
# The units are "effective area" in cm^2
#
# Michael Blanton
# 2004-03-12
#



1690.0  0
1691.0  0.245
1692.0  0.49
1693.0  0.735
1694.0  0.98
1695.0  1.225
1696.0  1.47
1697.0  1.715
1698.0  1.96
1699.0  2.205
1700.0  2.45
1701.0  2.4676
1702.0  2.4852
1703.0  2.5028
1704.0  2.5204
1705.0  2.538
1706.0  2.5556
1707.0  2.5732
1708.0  2.5908
1709.0  2.6084
1710.0  2.626
1711.0  2.6436
1712.0  2.6612
1713.0  2.6788
1714.0  2.6964
1715.0  2.714
1716.0  2.7316
1717.0  2.7492
1718.0  2.7668
1719.0  2.7844
1720.0  2.802
1721.0  2.8196
1722.0  2.8372
1723.0  2.8548
1724.0  2.8724
1725.0  2.89
1726.0  2.9076
1727.0  2.9252
1728.0  2.9428
1729.0  2.9604
1730.0  2.978
1731.0  2.9956
1732.0  3.0132
1733.0  3.0308
1734.0  3.0484
1735.0  3.066
1736.0  3.0836
1737.0  3.1012
1738.0  3.1188
1739.0  3.1364
1740.0  3.154
1741.0  3.1716
1742.0  3.1892
1743.0  3.2068
1744.0  3.2244
1745.0  3.242
1746.0  3.2596
1747.0  3.2772
1748.0  3.2948
1749.0  3.3124
1750.0  3.33
1751.0  3.4672
1752.0  3.6044
1753.0  3.7416
1754.0  3.8788
1755.0  4.016
1756.0  4.1532
1757.0  4.2904
1758.0  4.4276
1759.0  4.5648
1760.0  4.702
1761.0  4.8392
1762.0  4.9764
1763.0  5.1136
1764.0  5.2508
1765.0  5.388
1766.0  5.5252
1767.0  5.6624
1768.0  5.7996
1769.0  5.9368
1770.0  6.074
1771.0  6.2112
1772.0  6.3484
1773.0  6.4856
1774.0  6.6228
1775.0  6.76
1776.0  6.8972
1777.0  7.0344
1778.0  7.1716
1779.0  7.3088
1780.0  7.446
1781.0  7.5832
1782.0  7.7204
1783.0  7.8576
1784.0  7.9948
1785.0  8.132
1786.0  8.2692
1787.0  8.4064
1788.0  8.5436
1789.0  8.6808
1790.0  8.818
1791.0  8.9552
1792.0  9.0924
1793.0  9.2296
1794.0  9.3668
1795.0  9.504
1796.0  9.6412
1797.0  9.7784
1798.0  9.9156
1799.0  10.0528
1800.0  10.19
1801.0  10.338
1802.0  10.486
1803.0  10.634
1804.0  10.782
1805.0  10.93
1806.0  11.078
1807.0  11.226
1808.0  11.374
1809.0  11.522
1810.0  11.67
1811.0  11.818
1812.0  11.966
1813.0  12.114
1814.0  12.262
1815.0  12.41
1816.0  12.558
1817.0  12.706
1818.0  12.854
1819.0  13.002
1820.0  13.15
1821.0  13.298
1822.0  13.446
1823.0  13.594
1824.0  13.742
1825.0  13.89
1826.0  14.038
1827.0  14.186
1828.0  14.334
1829.0  14.482
1830.0  14.63
1831.0  14.778
1832.0  14.926
1833.0  15.074
1834.0  15.222
1835.0  15.37
1836.0  15.518
1837.0  15.666
1838.0  15.814
1839.0  15.962
1840.0  16.11
1841.0  16.258
1842.0  16.406
1843.0  16.554
1844.0  16.702
1845.0  16.85
1846.0  16.998
1847.0  17.146
1848.0  17.294
1849.0  17.442
1850.0  17.59
1851.0  17.772
1852.0  17.954
1853.0  18.136
1854.0  18.318
1855.0  18.5
1856.0  18.682
1857.0  18.864
1858.0  19.046
1859.0  19.228
1860.0  19.41
1861.0  19.592
1862.0  19.774
1863.0  19.956
1864.0  20.138
1865.0  20.32
1866.0  20.502
1867.0  20.684
1868.0  20.866
1869.0  21.048
1870.0  21.23
1871.0  21.412
1872.0  21.594
1873.0  21.776
1874.0  21.958
1875.0  22.14
1876.0  22.322
1877.0  22.504
1878.0  22.686
1879.0  22.868
1880.0  23.05
1881.0  23.232
1882.0  23.414
1883.0  23.596
1884.0  23.778
1885.0  23.96
1886.0  24.142
1887.0  24.324
1888.0  24.506
1889.0  24.688
1890.0  24.87
1891.0  25.052
1892.0  25.234
1893.0  25.416
1894.0  25.598
1895.0  25.78
1896.0  25.962
1897.0  26.144
1898.0  26.326
1899.0  26.508
1900.0  26.69
1901.0  26.8236
1902.0  26.9572
1903.0  27.0908
1904.0  27.2244
1905.0  27.358
1906.0  27.4916
1907.0  27.6252
1908.0  27.7588
1909.0  27.8924
1910.0  28.026
1911.0  28.1596
1912.0  28.2932
1913.0  28.4268
1914.0  28.5604
1915.0  28.694
1916.0  28.8276
1917.0  28.9612
1918.0  29.0948
1919.0  29.2284
1920.0  29.362
1921.0  29.4956
1922.0  29.6292
1923.0  29.7628
1924.0  29.8964
1925.0  30.03
1926.0  30.1636
1927.0  30.2972
1928.0  30.4308
1929.0  30.5644
1930.0  30.698
1931.0  30.8316
1932.0  30.9652
1933.0  31.0988
1934.0  31.2324
1935.0  31.366
1936.0  31.4996
1937.0  31.6332
1938.0  31.7668
1939.0  31.9004
1940.0  32.034
1941.0  32.1676
1942.0  32.3012
1943.0  32.4348
1944.0  32.5684
1945.0  32.702
1946.0  32.8356
1947.0  32.9692
1948.0  33.1028
1949.0  33.2364
1950.0  33.37
1951.0  33.6012
1952.0  33.8324
1953.0  34.0636
1954.0  34.2948
1955.0  34.526
1956.0  34.7572
1957.0  34.9884
1958.0  35.2196
1959.0  35.4508
1960.0  35.682
1961.0  35.9132
1962.0  36.1444
1963.0  36.3756
1964.0  36.6068
1965.0  36.838
1966.0  37.0692
1967.0  37.3004
1968.0  37.5316
1969.0  37.7628
1970.0  37.994
1971.0  38.2252
1972.0  38.4564
1973.0  38.6876
1974.0  38.9188
1975.0  39.15
1976.0  39.3812
1977.0  39.6124
1978.0  39.8436
1979.0  40.0748
1980.0  40.306
1981.0  40.5372
1982.0  40.7684
1983.0  40.9996
1984.0  41.2308
1985.0  41.462
1986.0  41.6932
1987.0  41.9244
1988.0  42.1556
1989.0  42.3868
1990.0  42.618
1991.0  42.8492
1992.0  43.0804
1993.0  43.3116
1994.0  43.5428
1995.0  43.774
1996.0  44.0052
1997.0  44.2364
1998.0  44.4676
1999.0  44.6988
2000.0  44.93
2001.0  44.9736
2002.0  45.0172
2003.0  45.0608
2004.0  45.1044
2005.0  45.148
2006.0  45.1916
2007.0  45.2352
2008.0  45.2788
2009.0  45.3224
2010.0  45.366
2011.0  45.4096
2012.0  45.4532
2013.0  45.4968
2014.0  45.5404
2015.0  45.584
2016.0  45.6276
2017.0  45.6712
2018.0  45.7148
2019.0  45.7584
2020.0  45.802
2021.0  45.8456
2022.0  45.8892
2023.0  45.9328
2024.0  45.9764
2025.0  46.02
2026.0  46.0636
2027.0  46.1072
2028.0  46.1508
2029.0  46.1944
2030.0  46.238
2031.0  46.2816
2032.0  46.3252
2033.0  46.3688
2034.0  46.4124
2035.0  46.456
2036.0  46.4996
2037.0  46.5432
2038.0  46.5868
2039.0  46.6304
2040.0  46.674
2041.0  46.7176
2042.0  46.7612
2043.0  46.8048
2044.0  46.8484
2045.0  46.892
2046.0  46.9356
2047.0  46.9792
2048.0  47.0228
2049.0  47.0664
2050.0  47.11
2051.0  47.2198
2052.0  47.3296
2053.0  47.4394
2054.0  47.5492
2055.0  47.659
2056.0  47.7688
2057.0  47.8786
2058.0  47.9884
2059.0  48.0982
2060.0  48.208
2061.0  48.3178
2062.0  48.4276
2063.0  48.5374
2064.0  48.6472
2065.0  48.757
2066.0  48.8668
2067.0  48.9766
2068.0  49.0864
2069.0  49.1962
2070.0  49.306
2071.0  49.4158
2072.0  49.5256
2073.0  49.6354
2074.0  49.7452
2075.0  49.855
2076.0  49.9648
2077.0  50.0746
2078.0  50.1844
2079.0  50.2942
2080.0  50.404
2081.0  50.5138
2082.0  50.6236
2083.0  50.7334
2084.0  50.8432
2085.0  50.953
2086.0  51.0628
2087.0  51.1726
2088.0  51.2824
2089.0  51.3922
2090.0  51.502
2091.0  51.6118
2092.0  51.7216
2093.0  51.8314
2094.0  51.9412
2095.0  52.051
2096.0  52.1608
2097.0  52.2706
2098.0  52.3804
2099.0  52.4902
2100.0  52.6
2101.0  52.738
2102.0  52.876
2103.0  53.014
2104.0  53.152
2105.0  53.29
2106.0  53.428
2107.0  53.566
2108.0  53.704
2109.0  53.842
2110.0  53.98
2111.0  54.118
2112.0  54.256
2113.0  54.394
2114.0  54.532
2115.0  54.67
2116.0  54.808
2117.0  54.946
2118.0  55.084
2119.0  55.222
2120.0  55.36
2121.0  55.498
2122.0  55.636
2123.0  55.774
2124.0  55.912
2125.0  56.05
2126.0  56.188
2127.0  56.326
2128.0  56.464
2129.0  56.602
2130.0  56.74
2131.0  56.878
2132.0  57.016
2133.0  57.154
2134.0  57.292
2135.0  57.43
2136.0  57.568
2137.0  57.706
2138.0  57.844
2139.0  57.982
2140.0  58.12
2141.0  58.258
2142.0  58.396
2143.0  58.534
2144.0  58.672
2145.0  58.81
2146.0  58.948
2147.0  59.086
2148.0  59.224
2149.0  59.362
2150.0  59.5
2151.0  59.5432
2152.0  59.5864
2153.0  59.6296
2154.0  59.6728
2155.0  59.716
2156.0  59.7592
2157.0  59.8024
2158.0  59.8456
2159.0  59.8888
2160.0  59.932
2161.0  59.9752
2162.0  60.0184
2163.0  60.0616
2164.0  60.1048
2165.0  60.148
2166.0  60.1912
2167.0  60.2344
2168.0  60.2776
2169.0  60.3208
2170.0  60.364
2171.0  60.4072
2172.0  60.4504
2173.0  60.4936
2174.0  60.5368
2175.0  60.58
2176.0  60.6232
2177.0  60.6664
2178.0  60.7096
2179.0  60.7528
2180.0  60.796
2181.0  60.8392
2182.0  60.8824
2183.0  60.9256
2184.0  60.9688
2185.0  61.012
2186.0  61.0552
2187.0  61.0984
2188.0  61.1416
2189.0  61.1848
2190.0  61.228
2191.0  61.2712
2192.0  61.3144
2193.0  61.3576
2194.0  61.4008
2195.0  61.444
2196.0  61.4872
2197.0  61.5304
2198.0  61.5736
2199.0  61.6168
2200.0  61.66
2201.0  61.5552
2202.0  61.4504
2203.0  61.3456
2204.0  61.2408
2205.0  61.136
2206.0  61.0312
2207.0  60.9264
2208.0  60.8216
2209.0  60.7168
2210.0  60.612
2211.0  60.5072
2212.0  60.4024
2213.0  60.2976
2214.0  60.1928
2215.0  60.088
2216.0  59.9832
2217.0  59.8784
2218.0  59.7736
2219.0  59.6688
2220.0  59.564
2221.0  59.4592
2222.0  59.3544
2223.0  59.2496
2224.0  59.1448
2225.0  59.04
2226.0  58.9352
2227.0  58.8304
2228.0  58.7256
2229.0  58.6208
2230.0  58.516
2231.0  58.4112
2232.0  58.3064
2233.0  58.2016
2234.0  58.0968
2235.0  57.992
2236.0  57.8872
2237.0  57.7824
2238.0  57.6776
2239.0  57.5728
2240.0  57.468
2241.0  57.3632
2242.0  57.2584
2243.0  57.1536
2244.0  57.0488
2245.0  56.944
2246.0  56.8392
2247.0  56.7344
2248.0  56.6296
2249.0  56.5248
2250.0  56.42
2251.0  56.3528
2252.0  56.2856
2253.0  56.2184
2254.0  56.1512
2255.0  56.084
2256.0  56.0168
2257.0  55.9496
2258.0  55.8824
2259.0  55.8152
2260.0  55.748
2261.0  55.6808
2262.0  55.6136
2263.0  55.5464
2264.0  55.4792
2265.0  55.412
2266.0  55.3448
2267.0  55.2776
2268.0  55.2104
2269.0  55.1432
2270.0  55.076
2271.0  55.0088
2272.0  54.9416
2273.0  54.8744
2274.0  54.8072
2275.0  54.74
2276.0  54.6728
2277.0  54.6056
2278.0  54.5384
2279.0  54.4712
2280.0  54.404
2281.0  54.3368
2282.0  54.2696
2283.0  54.2024
2284.0  54.1352
2285.0  54.068
2286.0  54.0008
2287.0  53.9336
2288.0  53.8664
2289.0  53.7992
2290.0  53.732
2291.0  53.6648
2292.0  53.5976
2293.0  53.5304
2294.0  53.4632
2295.0  53.396
2296.0  53.3288
2297.0  53.2616
2298.0  53.1944
2299.0  53.1272
2300.0  53.06
2301.0  52.9518
2302.0  52.8436
2303.0  52.7354
2304.0  52.6272
2305.0  52.519
2306.0  52.4108
2307.0  52.3026
2308.0  52.1944
2309.0  52.0862
2310.0  51.978
2311.0  51.8698
2312.0  51.7616
2313.0  51.6534
2314.0  51.5452
2315.0  51.437
2316.0  51.3288
2317.0  51.2206
2318.0  51.1124
2319.0  51.0042
2320.0  50.896
2321.0  50.7878
2322.0  50.6796
2323.0  50.5714
2324.0  50.4632
2325.0  50.355
2326.0  50.2468
2327.0  50.1386
2328.0  50.0304
2329.0  49.9222
2330.0  49.814
2331.0  49.7058
2332.0  49.5976
2333.0  49.4894
2334.0  49.3812
2335.0  49.273
2336.0  49.1648
2337.0  49.0566
2338.0  48.9484
2339.0  48.8402
2340.0  48.732
2341.0  48.6238
2342.0  48.5156
2343.0  48.4074
2344.0  48.2992
2345.0  48.191
2346.0  48.0828
2347.0  47.9746
2348.0  47.8664
2349.0  47.7582
2350.0  47.65
2351.0  47.7116
2352.0  47.7732
2353.0  47.8348
2354.0  47.8964
2355.0  47.958
2356.0  48.0196
2357.0  48.0812
2358.0  48.1428
2359.0  48.2044
2360.0  48.266
2361.0  48.3276
2362.0  48.3892
2363.0  48.4508
2364.0  48.5124
2365.0  48.574
2366.0  48.6356
2367.0  48.6972
2368.0  48.7588
2369.0  48.8204
2370.0  48.882
2371.0  48.9436
2372.0  49.0052
2373.0  49.0668
2374.0  49.1284
2375.0  49.19
2376.0  49.2516
2377.0  49.3132
2378.0  49.3748
2379.0  49.4364
2380.0  49.498
2381.0  49.5596
2382.0  49.6212
2383.0  49.6828
2384.0  49.7444
2385.0  49.806
2386.0  49.8676
2387.0  49.9292
2388.0  49.9908
2389.0  50.0524
2390.0  50.114
2391.0  50.1756
2392.0  50.2372
2393.0  50.2988
2394.0  50.3604
2395.0  50.422
2396.0  50.4836
2397.0  50.5452
2398.0  50.6068
2399.0  50.6684
2400.0  50.73
2401.0  50.7848
2402.0  50.8396
2403.0  50.8944
2404.0  50.9492
2405.0  51.004
2406.0  51.0588
2407.0  51.1136
2408.0  51.1684
2409.0  51.2232
2410.0  51.278
2411.0  51.3328
2412.0  51.3876
2413.0  51.4424
2414.0  51.4972
2415.0  51.552
2416.0  51.6068
2417.0  51.6616
2418.0  51.7164
2419.0  51.7712
2420.0  51.826
2421.0  51.8808
2422.0  51.9356
2423.0  51.9904
2424.0  52.0452
2425.0  52.1
2426.0  52.1548
2427.0  52.2096
2428.0  52.2644
2429.0  52.3192
2430.0  52.374
2431.0  52.4288
2432.0  52.4836
2433.0  52.5384
2434.0  52.5932
2435.0  52.648
2436.0  52.7028
2437.0  52.7576
2438.0  52.8124
2439.0  52.8672
2440.0  52.922
2441.0  52.9768
2442.0  53.0316
2443.0  53.0864
2444.0  53.1412
2445.0  53.196
2446.0  53.2508
2447.0  53.3056
2448.0  53.3604
2449.0  53.4152
2450.0  53.47
2451.0  53.4508
2452.0  53.4316
2453.0  53.4124
2454.0  53.3932
2455.0  53.374
2456.0  53.3548
2457.0  53.3356
2458.0  53.3164
2459.0  53.2972
2460.0  53.278
2461.0  53.2588
2462.0  53.2396
2463.0  53.2204
2464.0  53.2012
2465.0  53.182
2466.0  53.1628
2467.0  53.1436
2468.0  53.1244
2469.0  53.1052
2470.0  53.086
2471.0  53.0668
2472.0  53.0476
2473.0  53.0284
2474.0  53.0092
2475.0  52.99
2476.0  52.9708
2477.0  52.9516
2478.0  52.9324
2479.0  52.9132
2480.0  52.894
2481.0  52.8748
2482.0  52.8556
2483.0  52.8364
2484.0  52.8172
2485.0  52.798
2486.0  52.7788
2487.0  52.7596
2488.0  52.7404
2489.0  52.7212
2490.0  52.702
2491.0  52.6828
2492.0  52.6636
2493.0  52.6444
2494.0  52.6252
2495.0  52.606
2496.0  52.5868
2497.0  52.5676
2498.0  52.5484
2499.0  52.5292
2500.0  52.51
2501.0  52.4924
2502.0  52.4748
2503.0  52.4572
2504.0  52.4396
2505.0  52.422
2506.0  52.4044
2507.0  52.3868
2508.0  52.3692
2509.0  52.3516
2510.0  52.334
2511.0  52.3164
2512.0  52.2988
2513.0  52.2812
2514.0  52.2636
2515.0  52.246
2516.0  52.2284
2517.0  52.2108
2518.0  52.1932
2519.0  52.1756
2520.0  52.158
2521.0  52.1404
2522.0  52.1228
2523.0  52.1052
2524.0  52.0876
2525.0  52.07
2526.0  52.0524
2527.0  52.0348
2528.0  52.0172
2529.0  51.9996
2530.0  51.982
2531.0  51.9644
2532.0  51.9468
2533.0  51.9292
2534.0  51.9116
2535.0  51.894
2536.0  51.8764
2537.0  51.8588
2538.0  51.8412
2539.0  51.8236
2540.0  51.806
2541.0  51.7884
2542.0  51.7708
2543.0  51.7532
2544.0  51.7356
2545.0  51.718
2546.0  51.7004
2547.0  51.6828
2548.0  51.6652
2549.0  51.6476
2550.0  51.63
2551.0  51.5988
2552.0  51.5676
2553.0  51.5364
2554.0  51.5052
2555.0  51.474
2556.0  51.4428
2557.0  51.4116
2558.0  51.3804
2559.0  51.3492
2560.0  51.318
2561.0  51.2868
2562.0  51.2556
2563.0  51.2244
2564.0  51.1932
2565.0  51.162
2566.0  51.1308
2567.0  51.0996
2568.0  51.0684
2569.0  51.0372
2570.0  51.006
2571.0  50.9748
2572.0  50.9436
2573.0  50.9124
2574.0  50.8812
2575.0  50.85
2576.0  50.8188
2577.0  50.7876
2578.0  50.7564
2579.0  50.7252
2580.0  50.694
2581.0  50.6628
2582.0  50.6316
2583.0  50.6004
2584.0  50.5692
2585.0  50.538
2586.0  50.5068
2587.0  50.4756
2588.0  50.4444
2589.0  50.4132
2590.0  50.382
2591.0  50.3508
2592.0  50.3196
2593.0  50.2884
2594.0  50.2572
2595.0  50.226
2596.0  50.1948
2597.0  50.1636
2598.0  50.1324
2599.0  50.1012
2600.0  50.07
2601.0  49.9824
2602.0  49.8948
2603.0  49.8072
2604.0  49.7196
2605.0  49.632
2606.0  49.5444
2607.0  49.4568
2608.0  49.3692
2609.0  49.2816
2610.0  49.194
2611.0  49.1064
2612.0  49.0188
2613.0  48.9312
2614.0  48.8436
2615.0  48.756
2616.0  48.6684
2617.0  48.5808
2618.0  48.4932
2619.0  48.4056
2620.0  48.318
2621.0  48.2304
2622.0  48.1428
2623.0  48.0552
2624.0  47.9676
2625.0  47.88
2626.0  47.7924
2627.0  47.7048
2628.0  47.6172
2629.0  47.5296
2630.0  47.442
2631.0  47.3544
2632.0  47.2668
2633.0  47.1792
2634.0  47.0916
2635.0  47.004
2636.0  46.9164
2637.0  46.8288
2638.0  46.7412
2639.0  46.6536
2640.0  46.566
2641.0  46.4784
2642.0  46.3908
2643.0  46.3032
2644.0  46.2156
2645.0  46.128
2646.0  46.0404
2647.0  45.9528
2648.0  45.8652
2649.0  45.7776
2650.0  45.69
2651.0  45.528
2652.0  45.366
2653.0  45.204
2654.0  45.042
2655.0  44.88
2656.0  44.718
2657.0  44.556
2658.0  44.394
2659.0  44.232
2660.0  44.07
2661.0  43.908
2662.0  43.746
2663.0  43.584
2664.0  43.422
2665.0  43.26
2666.0  43.098
2667.0  42.936
2668.0  42.774
2669.0  42.612
2670.0  42.45
2671.0  42.288
2672.0  42.126
2673.0  41.964
2674.0  41.802
2675.0  41.64
2676.0  41.478
2677.0  41.316
2678.0  41.154
2679.0  40.992
2680.0  40.83
2681.0  40.668
2682.0  40.506
2683.0  40.344
2684.0  40.182
2685.0  40.02
2686.0  39.858
2687.0  39.696
2688.0  39.534
2689.0  39.372
2690.0  39.21
2691.0  39.048
2692.0  38.886
2693.0  38.724
2694.0  38.562
2695.0  38.4
2696.0  38.238
2697.0  38.076
2698.0  37.914
2699.0  37.752
2700.0  37.59
2701.0  37.3362
2702.0  37.0824
2703.0  36.8286
2704.0  36.5748
2705.0  36.321
2706.0  36.0672
2707.0  35.8134
2708.0  35.5596
2709.0  35.3058
2710.0  35.052
2711.0  34.7982
2712.0  34.5444
2713.0  34.2906
2714.0  34.0368
2715.0  33.783
2716.0  33.5292
2717.0  33.2754
2718.0  33.0216
2719.0  32.7678
2720.0  32.514
2721.0  32.2602
2722.0  32.0064
2723.0  31.7526
2724.0  31.4988
2725.0  31.245
2726.0  30.9912
2727.0  30.7374
2728.0  30.4836
2729.0  30.2298
2730.0  29.976
2731.0  29.7222
2732.0  29.4684
2733.0  29.2146
2734.0  28.9608
2735.0  28.707
2736.0  28.4532
2737.0  28.1994
2738.0  27.9456
2739.0  27.6918
2740.0  27.438
2741.0  27.1842
2742.0  26.9304
2743.0  26.6766
2744.0  26.4228
2745.0  26.169
2746.0  25.9152
2747.0  25.6614
2748.0  25.4076
2749.0  25.1538
2750.0  24.9
2751.0  24.6186
2752.0  24.3372
2753.0  24.0558
2754.0  23.7744
2755.0  23.493
2756.0  23.2116
2757.0  22.9302
2758.0  22.6488
2759.0  22.3674
2760.0  22.086
2761.0  21.8046
2762.0  21.5232
2763.0  21.2418
2764.0  20.9604
2765.0  20.679
2766.0  20.3976
2767.0  20.1162
2768.0  19.8348
2769.0  19.5534
2770.0  19.272
2771.0  18.9906
2772.0  18.7092
2773.0  18.4278
2774.0  18.1464
2775.0  17.865
2776.0  17.5836
2777.0  17.3022
2778.0  17.0208
2779.0  16.7394
2780.0  16.458
2781.0  16.1766
2782.0  15.8952
2783.0  15.6138
2784.0  15.3324
2785.0  15.051
2786.0  14.7696
2787.0  14.4882
2788.0  14.2068
2789.0  13.9254
2790.0  13.644
2791.0  13.3626
2792.0  13.0812
2793.0  12.7998
2794.0  12.5184
2795.0  12.237
2796.0  11.9556
2797.0  11.6742
2798.0  11.3928
2799.0  11.1114
2800.0  10.83
2801.0  10.6824
2802.0  10.5348
2803.0  10.3872
2804.0  10.2396
2805.0  10.092
2806.0  9.9444
2807.0  9.7968
2808.0  9.6492
2809.0  9.5016
2810.0  9.354
2811.0  9.2064
2812.0  9.0588
2813.0  8.9112
2814.0  8.7636
2815.0  8.616
2816.0  8.4684
2817.0  8.3208
2818.0  8.1732
2819.0  8.0256
2820.0  7.878
2821.0  7.7304
2822.0  7.5828
2823.0  7.4352
2824.0  7.2876
2825.0  7.14
2826.0  6.9924
2827.0  6.8448
2828.0  6.6972
2829.0  6.5496
2830.0  6.402
2831.0  6.2544
2832.0  6.1068
2833.0  5.9592
2834.0  5.8116
2835.0  5.664
2836.0  5.5164
2837.0  5.3688
2838.0  5.2212
2839.0  5.0736
2840.0  4.926
2841.0  4.7784
2842.0  4.6308
2843.0  4.4832
2844.0  4.3356
2845.0  4.188
2846.0  4.0404
2847.0  3.8928
2848.0  3.7452
2849.0  3.5976
2850.0  3.45
2851.0  3.406
2852.0  3.362
2853.0  3.318
2854.0  3.274
2855.0  3.23
2856.0  3.186
2857.0  3.142
2858.0  3.098
2859.0  3.054
2860.0  3.01
2861.0  2.966
2862.0  2.922
2863.0  2.878
2864.0  2.834
2865.0  2.79
2866.0  2.746
2867.0  2.702
2868.0  2.658
2869.0  2.614
2870.0  2.57
2871.0  2.526
2872.0  2.482
2873.0  2.438
2874.0  2.394
2875.0  2.35
2876.0  2.306
2877.0  2.262
2878.0  2.218
2879.0  2.174
2880.0  2.13
2881.0  2.086
2882.0  2.042
2883.0  1.998
2884.0  1.954
2885.0  1.91
2886.0  1.866
2887.0  1.822
2888.0  1.778
2889.0  1.734
2890.0  1.69
2891.0  1.646
2892.0  1.602
2893.0  1.558
2894.0  1.514
2895.0  1.47
2896.0  1.426
2897.0  1.382
2898.0  1.338
2899.0  1.294
2900.0  1.25
2901.0  1.2522
2902.0  1.2544
2903.0  1.2566
2904.0  1.2588
2905.0  1.261
2906.0  1.2632
2907.0  1.2654
2908.0  1.2676
2909.0  1.2698
2910.0  1.272
2911.0  1.2742
2912.0  1.2764
2913.0  1.2786
2914.0  1.2808
2915.0  1.283
2916.0  1.2852
2917.0  1.2874
2918.0  1.2896
2919.0  1.2918
2920.0  1.294
2921.0  1.2962
2922.0  1.2984
2923.0  1.3006
2924.0  1.3028
2925.0  1.305
2926.0  1.3072
2927.0  1.3094
2928.0  1.3116
2929.0  1.3138
2930.0  1.316
2931.0  1.3182
2932.0  1.3204
2933.0  1.3226
2934.0  1.3248
2935.0  1.327
2936.0  1.3292
2937.0  1.3314
2938.0  1.3336
2939.0  1.3358
2940.0  1.338
2941.0  1.3402
2942.0  1.3424
2943.0  1.3446
2944.0  1.3468
2945.0  1.349
2946.0  1.3512
2947.0  1.3534
2948.0  1.3556
2949.0  1.3578
2950.0  1.36
2951.0  1.3698
2952.0  1.3796
2953.0  1.3894
2954.0  1.3992
2955.0  1.409
2956.0  1.4188
2957.0  1.4286
2958.0  1.4384
2959.0  1.4482
2960.0  1.458
2961.0  1.4678
2962.0  1.4776
2963.0  1.4874
2964.0  1.4972
2965.0  1.507
2966.0  1.5168
2967.0  1.5266
2968.0  1.5364
2969.0  1.5462
2970.0  1.556
2971.0  1.5658
2972.0  1.5756
2973.0  1.5854
2974.0  1.5952
2975.0  1.605
2976.0  1.6148
2977.0  1.6246
2978.0  1.6344
2979.0  1.6442
2980.0  1.654
2981.0  1.6638
2982.0  1.6736
2983.0  1.6834
2984.0  1.6932
2985.0  1.703
2986.0  1.7128
2987.0  1.7226
2988.0  1.7324
2989.0  1.7422
2990.0  1.752
2991.0  1.7618
2992.0  1.7716
2993.0  1.7814
2994.0  1.7912
2995.0  1.801
2996.0  1.8108
2997.0  1.8206
2998.0  1.8304
2999.0  1.8402
3000.0  1.85
3001.0  1.665
3002.0  1.48
3003.0  1.295
3004.0  1.11
3005.0  0.925
3006.0  0.74
3007.0  0.555
3008.0  0.37
3009.0  0.185
3010.0  0
