# Units:
#  "lambda" is in Angstroms
#  "pass" is the contribution to the detector signal per photon
#         entering the atmosphere of Earth
#
# Bandpass Name(s): FUV
#
# Instrument: GalEx
# 
# Determined by: GalEx team (sent by David Schiminovich)
#
# Date of determination: 2003?
#
# Meaning of/Reason for default column: Only available
#
# Notes:
# 
# From Schiminovich:
#
# "In ground calibration, by measuring photon count rates of a
# monochromatic source and comparing to counts measured by a
# NIST-referenced photomultiplier tube.  At a given wavelength:
#
# Effective area=(Geometric open aperture)*(measured
# counts)*(phototube efficiency)/(phototube counts) 
# 
# Can determine zero-point from this.  We have compared to WD
# standards in-flight and believe our zero-point is less than 0.1 mag
# off, and will improve accuracy over the next few months (more
# calibrators are being observed).  Grism mode allows us to make some
# band shape determinations, however grism order efficiency enters
# into calculation.
#   
# -DS"
#
# The units are "effective area" in cm^2
#
# Michael Blanton
# 2004-03-12
#



1340.0  0
1341.0  1.154
1342.0  2.308
1343.0  3.462
1344.0  4.616
1345.0  5.77
1346.0  6.924
1347.0  8.078
1348.0  9.232
1349.0  10.386
1350.0  11.54
1351.0  11.8456
1352.0  12.1512
1353.0  12.4568
1354.0  12.7624
1355.0  13.068
1356.0  13.3736
1357.0  13.6792
1358.0  13.9848
1359.0  14.2904
1360.0  14.596
1361.0  14.9016
1362.0  15.2072
1363.0  15.5128
1364.0  15.8184
1365.0  16.124
1366.0  16.4296
1367.0  16.7352
1368.0  17.0408
1369.0  17.3464
1370.0  17.652
1371.0  17.6642
1372.0  17.6764
1373.0  17.6886
1374.0  17.7008
1375.0  17.713
1376.0  17.7252
1377.0  17.7374
1378.0  17.7496
1379.0  17.7618
1380.0  17.774
1381.0  17.4928
1382.0  17.2116
1383.0  16.9304
1384.0  16.6492
1385.0  16.368
1386.0  16.0868
1387.0  15.8056
1388.0  15.5244
1389.0  15.2432
1390.0  14.962
1391.0  14.6808
1392.0  14.3996
1393.0  14.1184
1394.0  13.8372
1395.0  13.556
1396.0  13.2748
1397.0  12.9936
1398.0  12.7124
1399.0  12.4312
1400.0  12.15
1401.0  12.6744
1402.0  13.1988
1403.0  13.7232
1404.0  14.2476
1405.0  14.772
1406.0  15.2964
1407.0  15.8208
1408.0  16.3452
1409.0  16.8696
1410.0  17.394
1411.0  17.9184
1412.0  18.4428
1413.0  18.9672
1414.0  19.4916
1415.0  20.016
1416.0  20.5404
1417.0  21.0648
1418.0  21.5892
1419.0  22.1136
1420.0  22.638
1421.0  23.0784
1422.0  23.5188
1423.0  23.9592
1424.0  24.3996
1425.0  24.84
1426.0  25.2804
1427.0  25.7208
1428.0  26.1612
1429.0  26.6016
1430.0  27.042
1431.0  27.3984
1432.0  27.7548
1433.0  28.1112
1434.0  28.4676
1435.0  28.824
1436.0  29.1804
1437.0  29.5368
1438.0  29.8932
1439.0  30.2496
1440.0  30.606
1441.0  30.9624
1442.0  31.3188
1443.0  31.6752
1444.0  32.0316
1445.0  32.388
1446.0  32.7444
1447.0  33.1008
1448.0  33.4572
1449.0  33.8136
1450.0  34.17
1451.0  34.2944
1452.0  34.4188
1453.0  34.5432
1454.0  34.6676
1455.0  34.792
1456.0  34.9164
1457.0  35.0408
1458.0  35.1652
1459.0  35.2896
1460.0  35.414
1461.0  35.5384
1462.0  35.6628
1463.0  35.7872
1464.0  35.9116
1465.0  36.036
1466.0  36.1604
1467.0  36.2848
1468.0  36.4092
1469.0  36.5336
1470.0  36.658
1471.0  36.6728
1472.0  36.6876
1473.0  36.7024
1474.0  36.7172
1475.0  36.732
1476.0  36.7468
1477.0  36.7616
1478.0  36.7764
1479.0  36.7912
1480.0  36.806
1481.0  36.7112
1482.0  36.6164
1483.0  36.5216
1484.0  36.4268
1485.0  36.332
1486.0  36.2372
1487.0  36.1424
1488.0  36.0476
1489.0  35.9528
1490.0  35.858
1491.0  35.7632
1492.0  35.6684
1493.0  35.5736
1494.0  35.4788
1495.0  35.384
1496.0  35.2892
1497.0  35.1944
1498.0  35.0996
1499.0  35.0048
1500.0  34.91
1501.0  34.8988
1502.0  34.8876
1503.0  34.8764
1504.0  34.8652
1505.0  34.854
1506.0  34.8428
1507.0  34.8316
1508.0  34.8204
1509.0  34.8092
1510.0  34.798
1511.0  34.7868
1512.0  34.7756
1513.0  34.7644
1514.0  34.7532
1515.0  34.742
1516.0  34.7308
1517.0  34.7196
1518.0  34.7084
1519.0  34.6972
1520.0  34.686
1521.0  34.5116
1522.0  34.3372
1523.0  34.1628
1524.0  33.9884
1525.0  33.814
1526.0  33.6396
1527.0  33.4652
1528.0  33.2908
1529.0  33.1164
1530.0  32.942
1531.0  32.6044
1532.0  32.2668
1533.0  31.9292
1534.0  31.5916
1535.0  31.254
1536.0  30.9164
1537.0  30.5788
1538.0  30.2412
1539.0  29.9036
1540.0  29.566
1541.0  29.2284
1542.0  28.8908
1543.0  28.5532
1544.0  28.2156
1545.0  27.878
1546.0  27.5404
1547.0  27.2028
1548.0  26.8652
1549.0  26.5276
1550.0  26.19
1551.0  26.1797
1552.0  26.1693
1553.0  26.159
1554.0  26.1487
1555.0  26.1383
1556.0  26.128
1557.0  26.1177
1558.0  26.1074
1559.0  26.097
1560.0  26.0867
1561.0  26.0764
1562.0  26.066
1563.0  26.0557
1564.0  26.0453
1565.0  26.035
1566.0  26.0247
1567.0  26.0143
1568.0  26.004
1569.0  25.9936
1570.0  25.9833
1571.0  25.973
1572.0  25.9626
1573.0  25.9523
1574.0  25.942
1575.0  25.9316
1576.0  25.9213
1577.0  25.911
1578.0  25.9007
1579.0  25.8903
1580.0  25.88
1581.0  25.8697
1582.0  25.8593
1583.0  25.849
1584.0  25.8387
1585.0  25.8284
1586.0  25.818
1587.0  25.8077
1588.0  25.7974
1589.0  25.787
1590.0  25.7767
1591.0  25.7664
1592.0  25.756
1593.0  25.7457
1594.0  25.7353
1595.0  25.725
1596.0  25.7147
1597.0  25.7043
1598.0  25.694
1599.0  25.6836
1600.0  25.6733
1601.0  25.663
1602.0  25.6526
1603.0  25.6423
1604.0  25.632
1605.0  25.6217
1606.0  25.6113
1607.0  25.601
1608.0  25.5907
1609.0  25.5803
1610.0  25.57
1611.0  25.329
1612.0  25.088
1613.0  24.847
1614.0  24.606
1615.0  24.365
1616.0  24.124
1617.0  23.883
1618.0  23.642
1619.0  23.401
1620.0  23.16
1621.0  22.919
1622.0  22.678
1623.0  22.437
1624.0  22.196
1625.0  21.955
1626.0  21.714
1627.0  21.473
1628.0  21.232
1629.0  20.991
1630.0  20.75
1631.0  20.509
1632.0  20.268
1633.0  20.027
1634.0  19.786
1635.0  19.545
1636.0  19.304
1637.0  19.063
1638.0  18.822
1639.0  18.581
1640.0  18.34
1641.0  18.099
1642.0  17.858
1643.0  17.617
1644.0  17.376
1645.0  17.135
1646.0  16.894
1647.0  16.653
1648.0  16.412
1649.0  16.171
1650.0  15.93
1651.0  15.8554
1652.0  15.7808
1653.0  15.7062
1654.0  15.6316
1655.0  15.557
1656.0  15.4824
1657.0  15.4078
1658.0  15.3332
1659.0  15.2586
1660.0  15.184
1661.0  15.1094
1662.0  15.0348
1663.0  14.9602
1664.0  14.8856
1665.0  14.811
1666.0  14.7364
1667.0  14.6618
1668.0  14.5872
1669.0  14.5126
1670.0  14.438
1671.0  14.3634
1672.0  14.2888
1673.0  14.2142
1674.0  14.1396
1675.0  14.065
1676.0  13.9904
1677.0  13.9158
1678.0  13.8412
1679.0  13.7666
1680.0  13.692
1681.0  13.6174
1682.0  13.5428
1683.0  13.4682
1684.0  13.3936
1685.0  13.319
1686.0  13.2444
1687.0  13.1698
1688.0  13.0952
1689.0  13.0206
1690.0  12.946
1691.0  12.8714
1692.0  12.7968
1693.0  12.7222
1694.0  12.6476
1695.0  12.573
1696.0  12.4984
1697.0  12.4238
1698.0  12.3492
1699.0  12.2746
1700.0  12.2
1701.0  12.167
1702.0  12.134
1703.0  12.101
1704.0  12.068
1705.0  12.035
1706.0  12.002
1707.0  11.969
1708.0  11.936
1709.0  11.903
1710.0  11.87
1711.0  11.837
1712.0  11.804
1713.0  11.771
1714.0  11.738
1715.0  11.705
1716.0  11.672
1717.0  11.639
1718.0  11.606
1719.0  11.573
1720.0  11.54
1721.0  11.507
1722.0  11.474
1723.0  11.441
1724.0  11.408
1725.0  11.375
1726.0  11.342
1727.0  11.309
1728.0  11.276
1729.0  11.243
1730.0  11.21
1731.0  11.177
1732.0  11.144
1733.0  11.111
1734.0  11.078
1735.0  11.045
1736.0  11.012
1737.0  10.979
1738.0  10.946
1739.0  10.913
1740.0  10.88
1741.0  10.847
1742.0  10.814
1743.0  10.781
1744.0  10.748
1745.0  10.715
1746.0  10.682
1747.0  10.649
1748.0  10.616
1749.0  10.583
1750.0  10.55
1751.0  10.3596
1752.0  10.1692
1753.0  9.9788
1754.0  9.7884
1755.0  9.598
1756.0  9.4076
1757.0  9.2172
1758.0  9.0268
1759.0  8.8364
1760.0  8.646
1761.0  8.4556
1762.0  8.2652
1763.0  8.0748
1764.0  7.8844
1765.0  7.694
1766.0  7.5036
1767.0  7.3132
1768.0  7.1228
1769.0  6.9324
1770.0  6.742
1771.0  6.5516
1772.0  6.3612
1773.0  6.1708
1774.0  5.9804
1775.0  5.79
1776.0  5.5996
1777.0  5.4092
1778.0  5.2188
1779.0  5.0284
1780.0  4.838
1781.0  4.6476
1782.0  4.4572
1783.0  4.2668
1784.0  4.0764
1785.0  3.886
1786.0  3.6956
1787.0  3.5052
1788.0  3.3148
1789.0  3.1244
1790.0  2.934
1791.0  2.7436
1792.0  2.5532
1793.0  2.3628
1794.0  2.1724
1795.0  1.982
1796.0  1.7916
1797.0  1.6012
1798.0  1.4108
1799.0  1.2204
1800.0  1.03
1801.0  0.927
1802.0  0.824
1803.0  0.721
1804.0  0.618
1805.0  0.515
1806.0  0.412
1807.0  0.309
1808.0  0.206
1809.0  0.103
1810.0  0
