# Units:
#   "lambda" is in Angstroms
#   "pass"   is *probably* the contribution to the detector signal
#            per photon
# Bandpass Name:
#   ch3
# Instrument:
#   Spitzer IRAC
# Notes:
#   - updated 7/14/2016, with data from
#     "http://irsa.ipac.caltech.edu/data/SPITZER/docs/irac/calibrationfiles/spectralresponse/"



47442.1  9.1e-05
47485.6  8.9e-05
47529.1  8.2e-05
47572.7  7.3e-05
47616.4  6.7e-05
47660.1  7.1e-05
47704.0  8e-05
47747.9  7.7e-05
47791.9  7.6e-05
47836.0  8.4e-05
47880.2  7.8e-05
47924.4  5.9e-05
47968.8  5.8e-05
48013.2  6.4e-05
48057.7  6.4e-05
48102.3  5.9e-05
48146.9  6.2e-05
48191.7  7.4e-05
48236.5  7.9e-05
48281.4  7.4e-05
48326.4  5.7e-05
48371.5  5.7e-05
48416.6  7.1e-05
48461.9  8.7e-05
48507.2  0.000108
48552.7  0.000128
48598.2  0.000146
48643.7  0.000182
48689.4  0.000249
48735.2  0.000319
48781.0  0.00033
48827.0  0.000427
48873.0  0.000524
48919.1  0.000716
48965.3  0.001192
49011.6  0.001799
49057.9  0.002635
49104.4  0.003611
49150.9  0.004625
49197.6  0.005849
49244.3  0.007203
49291.1  0.008569
49338.0  0.01052
49385.0  0.01295
49432.1  0.01591
49479.2  0.01933
49526.5  0.02243
49573.8  0.02605
49621.3  0.02958
49668.8  0.03298
49716.4  0.03637
49764.1  0.03989
49811.9  0.04359
49859.8  0.04734
49907.8  0.05102
49955.9  0.05547
50004.1  0.05867
50052.3  0.06256
50100.7  0.06592
50149.2  0.06873
50197.7  0.07092
50246.3  0.07309
50295.1  0.07452
50343.9  0.07602
50392.8  0.07741
50441.9  0.07852
50491.0  0.0799
50540.2  0.08102
50589.5  0.08237
50638.9  0.08383
50688.4  0.08533
50738.0  0.08704
50787.7  0.08925
50837.5  0.09112
50887.4  0.09334
50937.4  0.09547
50987.4  0.09705
51037.6  0.09815
51087.9  0.09923
51138.3  0.1002
51188.8  0.1009
51239.4  0.1017
51290.0  0.1024
51340.8  0.1029
51391.7  0.1034
51442.7  0.1037
51493.8  0.1038
51545.0  0.1038
51596.3  0.1039
51647.6  0.104
51699.1  0.1043
51750.7  0.1048
51802.4  0.1053
51854.2  0.1059
51906.1  0.1066
51958.1  0.1072
52010.3  0.108
52062.5  0.1088
52114.8  0.1095
52167.2  0.1102
52219.8  0.1109
52272.4  0.1115
52325.2  0.1121
52378.0  0.1127
52431.0  0.1129
52484.0  0.1129
52537.2  0.1123
52590.5  0.1116
52643.9  0.111
52697.4  0.1102
52751.0  0.1095
52804.7  0.1092
52858.5  0.1093
52912.5  0.1099
52966.5  0.1106
53020.7  0.1111
53075.0  0.1119
53129.3  0.1126
53183.8  0.1135
53238.4  0.1145
53293.1  0.1156
53348.0  0.1165
53402.9  0.1176
53458.0  0.1186
53513.1  0.1195
53568.4  0.1203
53623.8  0.121
53679.3  0.1216
53735.0  0.1222
53790.7  0.1227
53846.6  0.1229
53902.5  0.1229
53958.6  0.1229
54014.8  0.1228
54071.1  0.1226
54127.6  0.1225
54184.2  0.1221
54240.8  0.122
54297.6  0.1219
54354.5  0.1217
54411.6  0.1217
54468.7  0.1216
54526.0  0.1217
54583.4  0.1218
54640.9  0.1219
54698.6  0.1218
54756.3  0.1219
54814.2  0.1218
54872.2  0.1219
54930.3  0.1217
54988.6  0.1217
55047.0  0.1218
55105.5  0.122
55164.1  0.1226
55222.8  0.1232
55281.7  0.1239
55340.7  0.1245
55399.8  0.1253
55459.1  0.1261
55518.4  0.1268
55578.0  0.1275
55637.6  0.1282
55697.3  0.1289
55757.2  0.1296
55817.3  0.1296
55877.4  0.1294
55937.7  0.1292
55998.1  0.1289
56058.6  0.1288
56119.3  0.1288
56180.1  0.129
56241.0  0.1296
56302.1  0.1303
56363.3  0.1311
56424.6  0.1318
56486.1  0.1324
56547.7  0.133
56609.4  0.1335
56671.3  0.134
56733.3  0.1344
56795.4  0.1343
56857.7  0.1342
56920.1  0.1341
56982.7  0.1341
57045.4  0.1343
57108.2  0.1349
57171.1  0.1354
57234.3  0.1359
57297.5  0.1364
57360.9  0.1368
57424.4  0.137
57488.1  0.1374
57551.9  0.1376
57615.8  0.1374
57679.9  0.1366
57744.1  0.136
57808.5  0.1352
57873.0  0.1348
57937.7  0.1348
58002.5  0.1353
58067.4  0.1358
58132.5  0.1363
58197.8  0.137
58263.2  0.1376
58328.7  0.1381
58394.4  0.1386
58460.2  0.139
58526.2  0.1393
58592.4  0.1397
58658.6  0.1396
58725.1  0.1397
58791.6  0.1397
58858.4  0.1397
58925.3  0.1398
58992.3  0.1401
59059.5  0.1403
59126.8  0.1406
59194.3  0.1409
59262.0  0.1413
59329.8  0.1416
59397.7  0.1417
59465.9  0.1419
59534.1  0.142
59602.6  0.142
59671.2  0.1421
59739.9  0.142
59808.8  0.142
59877.9  0.1421
59947.1  0.142
60016.5  0.1419
60086.0  0.1416
60155.7  0.1415
60225.6  0.1415
60295.6  0.1417
60365.8  0.1417
60436.2  0.1418
60506.7  0.1419
60577.4  0.1419
60648.2  0.1418
60719.2  0.142
60790.4  0.142
60861.8  0.1416
60933.3  0.141
61005.0  0.1401
61076.8  0.1392
61148.9  0.1382
61221.1  0.1374
61293.4  0.1368
61366.0  0.1361
61438.7  0.1357
61511.5  0.1354
61584.6  0.1352
61657.8  0.1352
61731.2  0.135
61804.8  0.1347
61878.6  0.1347
61952.5  0.1341
62026.6  0.1333
62100.9  0.1323
62175.3  0.1309
62250.0  0.1292
62324.8  0.1278
62399.8  0.1263
62475.0  0.1253
62550.3  0.1249
62625.9  0.1245
62701.6  0.1244
62777.5  0.1246
62853.6  0.1248
62929.9  0.1251
63006.4  0.1254
63083.0  0.1252
63159.8  0.125
63236.9  0.1235
63314.1  0.1223
63391.5  0.12
63469.1  0.1176
63546.9  0.1148
63624.8  0.1093
63703.0  0.1036
63781.3  0.0972
63859.9  0.09083
63938.6  0.08463
64017.6  0.0794
64096.7  0.07256
64176.0  0.06498
64255.6  0.05796
64335.3  0.04972
64415.2  0.04142
64495.3  0.03276
64575.6  0.0255
64656.1  0.01899
64736.9  0.01339
64817.8  0.009109
64898.9  0.005789
64980.2  0.003272
65061.8  0.00172
65143.5  0.00082
65225.4  0.000371
65307.6  0.000125
65390.0  6.1e-05
65472.5  4.5e-05
65555.3  3e-05
65638.3  2.9e-05
65721.5  2.6e-05
65804.9  6e-06
65888.5  1.2e-05
65972.3  2.7e-05
66056.3  3.2e-05
66140.6  5.1e-05
66225.1  6.5e-05
