# Units:
#   "lambda" is in Angstroms
#   "pass"   is *probably* the contribution to the detector signal
#            per photon
# Bandpass Name:
#   ch4
# Instrument:
#   Spitzer IRAC
# Notes:
#   - updated 7/14/2016, with data from
#     "http://irsa.ipac.caltech.edu/data/SPITZER/docs/irac/calibrationfiles/spectralresponse/"



61511.5  7.1e-05
61584.6  0.000124
61657.8  0.000188
61731.2  0.000206
61804.8  0.00018
61878.6  0.000147
61952.5  9.6e-05
62026.6  5e-05
62100.9  8.3e-05
62175.3  0.000123
62250.0  0.000147
62324.8  0.000198
62399.8  0.000228
62475.0  0.000231
62550.3  0.000232
62625.9  0.000287
62701.6  0.000471
62777.5  0.000768
62853.6  0.001189
62929.9  0.002016
63006.4  0.003362
63083.0  0.005239
63159.8  0.007906
63236.9  0.01174
63314.1  0.01626
63391.5  0.02164
63469.1  0.02857
63546.9  0.03616
63624.8  0.04395
63703.0  0.05329
63781.3  0.06244
63859.9  0.07309
63938.6  0.08594
64017.6  0.1004
64096.7  0.1129
64176.0  0.1255
64255.6  0.1378
64335.3  0.1485
64415.2  0.1589
64495.3  0.1671
64575.6  0.174
64656.1  0.1793
64736.9  0.1848
64817.8  0.1898
64898.9  0.1971
64980.2  0.2049
65061.8  0.2117
65143.5  0.217
65225.4  0.2199
65307.6  0.2215
65390.0  0.224
65472.5  0.2272
65555.3  0.2295
65638.3  0.2313
65721.5  0.2326
65804.9  0.2328
65888.5  0.2329
65972.3  0.2335
66056.3  0.2331
66140.6  0.2325
66225.1  0.2301
66309.8  0.228
66394.7  0.2261
66479.8  0.2237
66565.1  0.2226
66650.7  0.2216
66736.5  0.222
66822.5  0.2236
66908.7  0.2262
66995.1  0.2286
67081.8  0.231
67168.7  0.233
67255.8  0.2347
67343.2  0.236
67430.7  0.2372
67518.5  0.2378
67606.6  0.2393
67694.8  0.2406
67783.3  0.2418
67872.0  0.2429
67961.0  0.244
68050.2  0.2448
68139.6  0.2461
68229.3  0.2471
68319.1  0.2481
68409.3  0.2485
68499.6  0.2491
68590.3  0.2494
68681.1  0.2492
68772.2  0.2488
68863.5  0.2483
68955.1  0.2477
69046.9  0.2473
69139.0  0.2476
69231.3  0.2485
69323.8  0.2492
69416.6  0.2491
69509.7  0.2488
69603.0  0.2479
69696.5  0.2469
69790.4  0.245
69884.4  0.2434
69978.7  0.2424
70073.3  0.2418
70168.1  0.2418
70263.2  0.2414
70358.5  0.241
70454.1  0.2409
70550.0  0.2403
70646.1  0.2396
70742.5  0.2392
70839.1  0.2396
70936.0  0.2403
71033.2  0.2411
71130.6  0.2418
71228.3  0.2422
71326.3  0.2421
71424.6  0.2417
71523.1  0.2413
71621.9  0.2407
71720.9  0.2408
71820.3  0.2418
71919.9  0.2433
72019.8  0.2447
72119.9  0.246
72220.4  0.2477
72321.1  0.2493
72422.1  0.2497
72523.4  0.2494
72625.0  0.2483
72726.8  0.2462
72829.0  0.2438
72931.4  0.2427
73034.1  0.242
73137.1  0.2428
73240.4  0.2442
73344.0  0.2468
73447.9  0.2495
73552.1  0.2526
73656.6  0.2543
73761.4  0.2556
73866.4  0.2563
73971.8  0.2556
74077.5  0.2547
74183.5  0.2537
74289.7  0.253
74396.3  0.2539
74503.2  0.2559
74610.4  0.2591
74717.9  0.2629
74825.7  0.2665
74933.9  0.27
75042.3  0.2728
75151.1  0.2755
75260.1  0.2778
75369.5  0.2796
75479.2  0.2809
75589.3  0.2822
75699.6  0.283
75810.3  0.2831
75921.3  0.2826
76032.6  0.2816
76144.2  0.2813
76256.2  0.2814
76368.5  0.2821
76481.2  0.2837
76594.1  0.2857
76707.4  0.2872
76821.1  0.2881
76935.1  0.2883
77049.4  0.2872
77164.0  0.2866
77279.0  0.2857
77394.4  0.2859
77510.1  0.2867
77626.1  0.2879
77742.5  0.2891
77859.2  0.2906
77976.3  0.2923
78093.7  0.2939
78211.5  0.2953
78329.7  0.2971
78448.2  0.299
78567.0  0.3007
78686.2  0.3016
78805.8  0.3022
78925.8  0.3014
79046.1  0.3002
79166.8  0.298
79287.8  0.2961
79409.2  0.2952
79531.0  0.2948
79653.2  0.2957
79775.7  0.2967
79898.7  0.2977
80022.0  0.299
80145.6  0.3002
80269.7  0.3013
80394.2  0.3024
80519.0  0.3032
80644.2  0.305
80769.8  0.3061
80895.8  0.308
81022.2  0.3089
81149.0  0.309
81276.2  0.3091
81403.8  0.3086
81531.8  0.3081
81660.2  0.3079
81789.0  0.3085
81918.2  0.3095
82047.8  0.3113
82177.9  0.3127
82308.3  0.3137
82439.2  0.3137
82570.4  0.3137
82702.1  0.3134
82834.2  0.3128
82966.8  0.3125
83099.7  0.3128
83233.1  0.3125
83366.9  0.3119
83501.2  0.3108
83635.9  0.3099
83771.0  0.3094
83906.5  0.3095
84042.5  0.3101
84178.9  0.3117
84315.8  0.313
84453.1  0.3136
84590.9  0.314
84729.1  0.3137
84867.8  0.3124
85006.9  0.3113
85146.5  0.3109
85286.6  0.3112
85427.1  0.3112
85568.0  0.3117
85709.5  0.3126
85851.4  0.3122
85993.8  0.3121
86136.6  0.3102
86279.9  0.3085
86423.7  0.306
86568.0  0.3026
86712.8  0.2981
86858.0  0.2943
87003.7  0.2909
87150.0  0.2892
87296.7  0.2898
87443.9  0.2916
87591.6  0.2938
87739.8  0.2958
87888.5  0.2973
88037.7  0.2984
88187.5  0.2981
88337.7  0.2965
88488.5  0.2939
88639.7  0.2914
88791.5  0.2889
88943.8  0.2875
89096.6  0.2857
89250.0  0.2841
89403.8  0.2827
89558.3  0.2806
89713.2  0.2781
89868.7  0.2756
90024.7  0.2737
90181.3  0.2713
90338.4  0.2686
90496.0  0.2659
90654.3  0.2641
90813.0  0.2616
90972.3  0.2578
91132.2  0.2536
91292.7  0.2497
91453.7  0.2429
91615.2  0.2345
91777.4  0.2242
91940.1  0.2141
92103.4  0.2015
92267.3  0.1898
92431.8  0.1774
92596.8  0.1653
92762.5  0.1534
92928.7  0.1437
93095.6  0.1334
93263.0  0.1235
93431.0  0.1132
93599.7  0.1022
93769.0  0.09073
93938.8  0.07915
94109.3  0.06783
94280.4  0.05607
94452.2  0.04578
94624.5  0.03604
94797.5  0.02739
94971.1  0.02015
95145.4  0.01445
95320.3  0.01021
95495.8  0.007234
95672.0  0.00491
95848.9  0.003291
96026.4  0.0023
96204.5  0.001616
96383.3  0.001144
96562.8  0.000818
96743.0  0.00051
96923.8  0.000279
97105.3  0.000166
97287.5  0.000118
97470.4  9e-05
97653.9  0.000115
97838.2  0.000134
98023.1  6.6e-05
98208.8  4.8e-05
98395.1  9.5e-05
98582.2  0.000102
98770.0  0.000164
98958.5  0.000299
99147.7  0.000334
99337.6  0.000325
99528.3  0.00032
99719.7  0.000276
99911.8  0.000291
100105.0  0.000274
100298.0  0.000161
100493.0  0.000157
100688.0  0.000208
100884.0  0.000188
101080.0  0.000145
101278.0  0.00016
101476.0  0.000233
101675.0  0.000289
101875.0  0.000264
102075.0  0.000182
102277.0  8.8e-05
102479.0  4.7e-05
102682.0  0.000114
102885.0  0.000213
103090.0  0.000245
103295.0  0.000214
103501.0  0.000196
103708.0  0.000202
103916.0  0.00023
104125.0  0.000273
104334.0  0.000271
104545.0  0.000259
104756.0  0.000252
104968.0  0.00019
